# scan = 79
# date = 9/5/2017
# time = 11:04:39 PM
# proposal = 19739
# experiment = Separation of phonon and magnetic scattering near the Majorana mode in Î±-RuCl3: feasibility study
# experiment_number = 600
# command = scanrel s1 10 -10 0.2
# builtin_command = scan s1 @(s1)+10 @(s1)+-10 0.200000
# users = Paula Kelley
# local_contact = 
# scan_title = alignment while cooling on 3 0 0 peak
# monochromator = PG002
# analyzer = Pg002
# sense = -+-
# collimation = 48-40-40-120
# samplename = RuCl3
# sampletype = crystal
# samplemosaic = 30.000000
# latticeconstants = 5.975000,5.975000,16.960200,90.000000,90.000000,120.000000
# ubmatrix = 0.007322,-0.002180,-0.058883,0.192404,0.110778,0.002048,0.016575,-0.158338,0.002243
# mode = 0
# plane_normal = 0.034899,-0.087094,0.995584
# ubconf = UB05Sep2017_105727PM.ini
# preset_type = normal 
# preset_channel = time
# preset_value = 1.000000
# def_x = s1
# def_y = detector
# col_headers = 
#   Pt.         s1       time   detector    monitor        mcu focal_length         m1         m2   mcrystal       marc     mtrans     mfocus        bab        bal        bar        bat        bbb        bbl        bbr        bbt         s2        sgl        sgu        stl        stu         a1         a2          q          h          k          l         ei         ef          e   cold_tip    tsample       temp
      1   145.5006      1.000    501.000  13905.000      5.295    66.7975   -22.2454   -41.1659   119.9771     2.6000    -2.0000   -34.2897    25.0000    10.0000    10.0000    25.0000    39.0000    30.0000    30.0000    39.0000    86.3044    -2.0000    -4.9995    -0.0010    -0.0010   159.4104   -41.1799     3.6428     2.9529     0.0000    -1.7355    14.7002    14.6907     0.0095    15.9830    23.3960     1.000
      2   145.3004      1.000    521.000  13959.000      5.316    66.7975   -22.2454   -41.1659   119.9771     2.6000    -2.0000   -34.2897    25.0000    10.0000    10.0000    25.0000    39.0000    30.0000    30.0000    39.0000    86.3044    -2.0000    -4.9995    -0.0010    -0.0010   159.4104   -41.1799     3.6428     2.9547    -0.0000    -1.7017    14.7002    14.6907     0.0095    15.8420    23.0650     1.000
      3   145.1004      1.000    528.000  13940.000      5.308    66.7975   -22.2454   -41.1659   119.9771     2.6000    -2.0000   -34.2897    25.0000    10.0000    10.0000    25.0000    39.0000    30.0000    30.0000    39.0000    86.3044    -2.0000    -4.9995    -0.0010    -0.0010   159.4104   -41.1799     3.6428     2.9565     0.0000    -1.6678    14.7002    14.6907     0.0095    15.6560    22.7690     1.000
      4   144.9004      1.000    563.000  13642.000      5.195    66.7975   -22.2454   -41.1659   119.9771     2.6000    -2.0000   -34.2897    25.0000    10.0000    10.0000    25.0000    39.0000    30.0000    30.0000    39.0000    86.3044    -2.0000    -4.9995    -0.0010    -0.0010   159.4104   -41.1799     3.6428     2.9583    -0.0000    -1.6340    14.7002    14.6907     0.0095    15.6020    22.4650     1.000
      5   144.7004      1.000    560.000  13865.000      5.280    66.7975   -22.2454   -41.1659   119.9771     2.6000    -2.0000   -34.2897    25.0000    10.0000    10.0000    25.0000    39.0000    30.0000    30.0000    39.0000    86.3044    -2.0000    -4.9995    -0.0010    -0.0010   159.4104   -41.1799     3.6428     2.9600     0.0000    -1.6001    14.7002    14.6907     0.0095    15.5120    22.1670     1.000
      6   144.5004      1.000    586.000  13933.000      5.306    66.7975   -22.2454   -41.1659   119.9771     2.6000    -2.0000   -34.2897    25.0000    10.0000    10.0000    25.0000    39.0000    30.0000    30.0000    39.0000    86.3044    -2.0000    -4.9995    -0.0010    -0.0010   159.4104   -41.1799     3.6428     2.9617     0.0000    -1.5663    14.7002    14.6907     0.0095    15.4050    21.8460     1.000
      7   144.3004      1.000    615.000  13642.000      5.195    66.7975   -22.2454   -41.1659   119.9771     2.6000    -2.0000   -34.2897    25.0000    10.0000    10.0000    25.0000    39.0000    30.0000    30.0000    39.0000    86.3044    -2.0000    -4.9995    -0.0010    -0.0010   159.4104   -41.1799     3.6428     2.9633     0.0000    -1.5324    14.7002    14.6907     0.0095    15.3280    21.5330     1.000
      8   144.1004      1.000    606.000  13775.000      5.246    66.7975   -22.2454   -41.1659   119.9771     2.6000    -2.0000   -34.2897    25.0000    10.0000    10.0000    25.0000    39.0000    30.0000    30.0000    39.0000    86.3044    -2.0000    -4.9995    -0.0010    -0.0010   159.4104   -41.1799     3.6428     2.9649    -0.0000    -1.4985    14.7002    14.6907     0.0095    15.3660    21.2270     1.000
      9   143.9004      1.000    630.000  13883.000      5.287    66.7975   -22.2454   -41.1659   119.9771     2.6000    -2.0000   -34.2897    25.0000    10.0000    10.0000    25.0000    39.0000    30.0000    30.0000    39.0000    86.3044    -2.0000    -4.9995    -0.0010    -0.0010   159.4104   -41.1799     3.6428     2.9665     0.0000    -1.4645    14.7002    14.6907     0.0095    15.2480    20.9020     1.000
     10   143.7004      1.000    612.000  13979.000      5.323    66.7975   -22.2454   -41.1659   119.9771     2.6000    -2.0000   -34.2897    25.0000    10.0000    10.0000    25.0000    39.0000    30.0000    30.0000    39.0000    86.3044    -2.0000    -4.9995    -0.0010    -0.0010   159.4104   -41.1799     3.6428     2.9681     0.0000    -1.4306    14.7002    14.6907     0.0095    15.1610    20.5920     1.000
     11   143.5004      1.000    690.000  13825.000      5.265    66.7975   -22.2454   -41.1659   119.9771     2.6000    -2.0000   -34.2897    25.0000    10.0000    10.0000    25.0000    39.0000    30.0000    30.0000    39.0000    86.3044    -2.0000    -4.9995    -0.0010    -0.0010   159.4104   -41.1799     3.6428     2.9696     0.0000    -1.3966    14.7002    14.6907     0.0095    15.0580    20.2990     1.000
     12   143.3004      1.000    691.000  13642.000      5.195    66.7975   -22.2454   -41.1659   119.9771     2.6000    -2.0000   -34.2897    25.0000    10.0000    10.0000    25.0000    39.0000    30.0000    30.0000    39.0000    86.3044    -2.0000    -4.9995    -0.0010    -0.0010   159.4104   -41.1799     3.6428     2.9710     0.0000    -1.3626    14.7002    14.6907     0.0095    15.0050    20.0160     1.000
     13   143.1004      1.000    710.000  13996.000      5.330    66.7975   -22.2454   -41.1659   119.9771     2.6000    -2.0000   -34.2897    25.0000    10.0000    10.0000    25.0000    39.0000    30.0000    30.0000    39.0000    86.3044    -2.0000    -4.9995    -0.0010    -0.0010   159.4104   -41.1799     3.6428     2.9725     0.0000    -1.3286    14.7002    14.6907     0.0095    15.0420    19.7220     1.000
     14   142.9004      1.000    723.000  13967.000      5.319    66.7975   -22.2454   -41.1659   119.9771     2.6000    -2.0000   -34.2897    25.0000    10.0000    10.0000    25.0000    39.0000    30.0000    30.0000    39.0000    86.3044    -2.0000    -4.9995    -0.0010    -0.0010   159.4104   -41.1799     3.6428     2.9739     0.0000    -1.2946    14.7002    14.6907     0.0095    15.0260    19.4400     1.000
     15   142.7004      1.000    759.000  13866.000      5.280    66.7975   -22.2454   -41.1659   119.9771     2.6000    -2.0000   -34.2897    25.0000    10.0000    10.0000    25.0000    39.0000    30.0000    30.0000    39.0000    86.3044    -2.0000    -4.9995    -0.0010    -0.0010   159.4104   -41.1799     3.6428     2.9752    -0.0000    -1.2606    14.7002    14.6907     0.0095    14.8910    19.1670     1.000
     16   142.5004      1.000    867.000  13897.000      5.292    66.7975   -22.2454   -41.1659   119.9771     2.6000    -2.0000   -34.2897    25.0000    10.0000    10.0000    25.0000    39.0000    30.0000    30.0000    39.0000    86.3044    -2.0000    -4.9995    -0.0010    -0.0010   159.4104   -41.1799     3.6428     2.9766    -0.0000    -1.2265    14.7002    14.6907     0.0095    14.8610    18.9060     1.000
     17   142.3004      1.000    897.000  14001.000      5.332    66.7975   -22.2454   -41.1659   119.9771     2.6000    -2.0000   -34.2897    25.0000    10.0000    10.0000    25.0000    39.0000    30.0000    30.0000    39.0000    86.3044    -2.0000    -4.9995    -0.0010    -0.0010   159.4104   -41.1799     3.6428     2.9778     0.0000    -1.1925    14.7002    14.6907     0.0095    14.8490    18.6510     1.000
     18   142.1004      1.000    951.000  14078.000      5.361    66.7975   -22.2454   -41.1659   119.9771     2.6000    -2.0000   -34.2897    25.0000    10.0000    10.0000    25.0000    39.0000    30.0000    30.0000    39.0000    86.3044    -2.0000    -4.9995    -0.0010    -0.0010   159.4104   -41.1799     3.6428     2.9791     0.0000    -1.1584    14.7002    14.6907     0.0095    14.8250    18.4140     1.000
     19   141.9004      1.000   1137.000  13897.000      5.292    66.7975   -22.2454   -41.1659   119.9771     2.6000    -2.0000   -34.2897    25.0000    10.0000    10.0000    25.0000    39.0000    30.0000    30.0000    39.0000    86.3044    -2.0000    -4.9995    -0.0010    -0.0010   159.4104   -41.1799     3.6428     2.9803     0.0000    -1.1243    14.7002    14.6907     0.0095    14.8650    18.1800     1.000
     20   141.7004      1.000   1150.000  13900.000      5.293    66.7975   -22.2454   -41.1659   119.9771     2.6000    -2.0000   -34.2897    25.0000    10.0000    10.0000    25.0000    39.0000    30.0000    30.0000    39.0000    86.3044    -2.0000    -4.9995    -0.0010    -0.0010   159.4104   -41.1799     3.6428     2.9815     0.0000    -1.0902    14.7002    14.6907     0.0095    14.6790    17.9630     1.000
     21   141.5004      1.000   1297.000  13727.000      5.227    66.7975   -22.2454   -41.1659   119.9771     2.6000    -2.0000   -34.2897    25.0000    10.0000    10.0000    25.0000    39.0000    30.0000    30.0000    39.0000    86.3044    -2.0000    -4.9995    -0.0010    -0.0010   159.4104   -41.1799     3.6428     2.9826     0.0000    -1.0561    14.7002    14.6907     0.0095    14.6330    17.7530     1.000
     22   141.3004      1.000   1371.000  13966.000      5.318    66.7975   -22.2454   -41.1659   119.9771     2.6000    -2.0000   -34.2897    25.0000    10.0000    10.0000    25.0000    39.0000    30.0000    30.0000    39.0000    86.3044    -2.0000    -4.9995    -0.0010    -0.0010   159.4104   -41.1799     3.6428     2.9837     0.0000    -1.0220    14.7002    14.6907     0.0095    14.5800    17.5570     1.000
     23   141.1004      1.000   1429.000  13893.000      5.291    66.7975   -22.2454   -41.1659   119.9771     2.6000    -2.0000   -34.2897    25.0000    10.0000    10.0000    25.0000    39.0000    30.0000    30.0000    39.0000    86.3044    -2.0000    -4.9995    -0.0010    -0.0010   159.4104   -41.1799     3.6428     2.9848     0.0000    -0.9878    14.7002    14.6907     0.0095    14.4700    17.3620     1.000
     24   140.9004      1.000   1608.000  13926.000      5.303    66.7975   -22.2454   -41.1659   119.9771     2.6000    -2.0000   -34.2897    25.0000    10.0000    10.0000    25.0000    39.0000    30.0000    30.0000    39.0000    86.3044    -2.0000    -4.9995    -0.0010    -0.0010   159.4104   -41.1799     3.6428     2.9858     0.0000    -0.9537    14.7002    14.6907     0.0095    14.3350    17.1810     1.000
     25   140.7004      1.000   1755.000  13866.000      5.280    66.7975   -22.2454   -41.1659   119.9771     2.6000    -2.0000   -34.2897    25.0000    10.0000    10.0000    25.0000    39.0000    30.0000    30.0000    39.0000    86.3044    -2.0000    -4.9995    -0.0010    -0.0010   159.4104   -41.1799     3.6428     2.9868     0.0000    -0.9195    14.7002    14.6907     0.0095    14.2660    17.0010     1.000
     26   140.5004      1.000   1904.000  13838.000      5.270    66.7975   -22.2454   -41.1659   119.9771     2.6000    -2.0000   -34.2897    25.0000    10.0000    10.0000    25.0000    39.0000    30.0000    30.0000    39.0000    86.3044    -2.0000    -4.9995    -0.0010    -0.0010   159.4104   -41.1799     3.6428     2.9878     0.0000    -0.8853    14.7002    14.6907     0.0095    14.1700    16.8340     1.000
     27   140.3004      1.000   2030.000  13838.000      5.270    66.7975   -22.2454   -41.1659   119.9771     2.6000    -2.0000   -34.2897    25.0000    10.0000    10.0000    25.0000    39.0000    30.0000    30.0000    39.0000    86.3044    -2.0000    -4.9995    -0.0010    -0.0010   159.4104   -41.1799     3.6428     2.9887     0.0000    -0.8511    14.7002    14.6907     0.0095    14.1900    16.6790     1.000
     28   140.1004      1.000   2092.000  13608.000      5.182    66.7975   -22.2454   -41.1659   119.9771     2.6000    -2.0000   -34.2897    25.0000    10.0000    10.0000    25.0000    39.0000    30.0000    30.0000    39.0000    86.3044    -2.0000    -4.9995    -0.0010    -0.0010   159.4104   -41.1799     3.6428     2.9896     0.0000    -0.8169    14.7002    14.6907     0.0095    14.0490    16.5180     1.000
     29   139.9004      1.000   2222.000  13929.000      5.304    66.7975   -22.2454   -41.1659   119.9771     2.6000    -2.0000   -34.2897    25.0000    10.0000    10.0000    25.0000    39.0000    30.0000    30.0000    39.0000    86.3044    -2.0000    -4.9995    -0.0010    -0.0010   159.4104   -41.1799     3.6428     2.9905    -0.0000    -0.7827    14.7002    14.6907     0.0095    13.9550    16.3620     1.000
     30   139.7004      1.000   2339.000  13926.000      5.303    66.7975   -22.2454   -41.1659   119.9771     2.6000    -2.0000   -34.2897    25.0000    10.0000    10.0000    25.0000    39.0000    30.0000    30.0000    39.0000    86.3044    -2.0000    -4.9995    -0.0010    -0.0010   159.4104   -41.1799     3.6428     2.9913     0.0000    -0.7485    14.7002    14.6907     0.0095    13.8030    16.2120     1.000
     31   139.5004      1.000   2484.000  13858.000      5.277    66.7975   -22.2454   -41.1659   119.9771     2.6000    -2.0000   -34.2897    25.0000    10.0000    10.0000    25.0000    39.0000    30.0000    30.0000    39.0000    86.3044    -2.0000    -4.9995    -0.0010    -0.0010   159.4104   -41.1799     3.6428     2.9921     0.0000    -0.7143    14.7002    14.6907     0.0095    13.8120    16.0700     1.000
     32   139.3004      1.000   2665.000  13978.000      5.323    66.7975   -22.2454   -41.1659   119.9771     2.6000    -2.0000   -34.2897    25.0000    10.0000    10.0000    25.0000    39.0000    30.0000    30.0000    39.0000    86.3044    -2.0000    -4.9995    -0.0010    -0.0010   159.4104   -41.1799     3.6428     2.9928     0.0000    -0.6800    14.7002    14.6907     0.0095    13.7390    15.9350     1.000
     33   139.1004      1.000   3117.000  13983.000      5.325    66.7975   -22.2454   -41.1659   119.9771     2.6000    -2.0000   -34.2897    25.0000    10.0000    10.0000    25.0000    39.0000    30.0000    30.0000    39.0000    86.3044    -2.0000    -4.9995    -0.0010    -0.0010   159.4104   -41.1799     3.6428     2.9935     0.0000    -0.6458    14.7002    14.6907     0.0095    13.5160    15.7930     1.000
     34   138.9004      1.000   3336.000  13819.000      5.262    66.7975   -22.2454   -41.1659   119.9771     2.6000    -2.0000   -34.2897    25.0000    10.0000    10.0000    25.0000    39.0000    30.0000    30.0000    39.0000    86.3044    -2.0000    -4.9995    -0.0010    -0.0010   159.4104   -41.1799     3.6428     2.9942     0.0000    -0.6115    14.7002    14.6907     0.0095    13.4570    15.6550     1.000
     35   138.7004      1.000   3577.000  14107.000      5.372    66.7975   -22.2454   -41.1659   119.9771     2.6000    -2.0000   -34.2897    25.0000    10.0000    10.0000    25.0000    39.0000    30.0000    30.0000    39.0000    86.3044    -2.0000    -4.9995    -0.0010    -0.0010   159.4104   -41.1799     3.6428     2.9948     0.0000    -0.5773    14.7002    14.6907     0.0095    13.2360    15.5160     1.000
     36   138.5004      1.000   3958.000  14075.000      5.360    66.7975   -22.2454   -41.1659   119.9771     2.6000    -2.0000   -34.2897    25.0000    10.0000    10.0000    25.0000    39.0000    30.0000    30.0000    39.0000    86.3044    -2.0000    -4.9995    -0.0010    -0.0010   159.4104   -41.1799     3.6428     2.9954     0.0000    -0.5430    14.7002    14.6907     0.0095    13.0530    15.3760     1.000
     37   138.3004      1.000   4554.000  13875.000      5.284    66.7975   -22.2454   -41.1659   119.9771     2.6000    -2.0000   -34.2897    25.0000    10.0000    10.0000    25.0000    39.0000    30.0000    30.0000    39.0000    86.3044    -2.0000    -4.9995    -0.0010    -0.0010   159.4104   -41.1799     3.6428     2.9960     0.0000    -0.5087    14.7002    14.6907     0.0095    12.9380    15.2330     1.000
     38   138.1004      1.000   5256.000  13754.000      5.238    66.7975   -22.2454   -41.1659   119.9771     2.6000    -2.0000   -34.2897    25.0000    10.0000    10.0000    25.0000    39.0000    30.0000    30.0000    39.0000    86.3044    -2.0000    -4.9995    -0.0010    -0.0010   159.4104   -41.1799     3.6428     2.9965     0.0000    -0.4744    14.7002    14.6907     0.0095    13.0120    15.0930     1.000
     39   137.9004      1.000   6267.000  13778.000      5.247    66.7975   -22.2454   -41.1659   119.9771     2.6000    -2.0000   -34.2897    25.0000    10.0000    10.0000    25.0000    39.0000    30.0000    30.0000    39.0000    86.3044    -2.0000    -4.9995    -0.0010    -0.0010   159.4104   -41.1799     3.6428     2.9970     0.0000    -0.4402    14.7002    14.6907     0.0095    13.1740    14.9530     1.000
     40   137.7004      1.000   8049.000  13883.000      5.287    66.7975   -22.2454   -41.1659   119.9771     2.6000    -2.0000   -34.2897    25.0000    10.0000    10.0000    25.0000    39.0000    30.0000    30.0000    39.0000    86.3044    -2.0000    -4.9995    -0.0010    -0.0010   159.4104   -41.1799     3.6428     2.9974     0.0000    -0.4059    14.7002    14.6907     0.0095    12.9840    14.8240     1.000
     41   137.5004      1.000   9718.000  13815.000      5.261    66.7975   -22.2454   -41.1659   119.9771     2.6000    -2.0000   -34.2897    25.0000    10.0000    10.0000    25.0000    39.0000    30.0000    30.0000    39.0000    86.3044    -2.0000    -4.9995    -0.0010    -0.0010   159.4104   -41.1799     3.6428     2.9978     0.0000    -0.3716    14.7002    14.6907     0.0095    12.7070    14.7030     1.000
     42   137.3004      1.000  11123.000  13868.000      5.281    66.7975   -22.2454   -41.1659   119.9771     2.6000    -2.0000   -34.2897    25.0000    10.0000    10.0000    25.0000    39.0000    30.0000    30.0000    39.0000    86.3044    -2.0000    -4.9995    -0.0010    -0.0010   159.4104   -41.1799     3.6428     2.9982     0.0000    -0.3373    14.7002    14.6907     0.0095    12.5450    14.5820     1.000
     43   137.1004      1.000  11575.000  14003.000      5.332    66.7975   -22.2454   -41.1659   119.9771     2.6000    -2.0000   -34.2897    25.0000    10.0000    10.0000    25.0000    39.0000    30.0000    30.0000    39.0000    86.3044    -2.0000    -4.9995    -0.0010    -0.0010   159.4104   -41.1799     3.6428     2.9986     0.0000    -0.3030    14.7002    14.6907     0.0095    12.5770    14.4620     1.000
     44   136.9004      1.000  12914.000  13720.000      5.225    66.7975   -22.2454   -41.1659   119.9771     2.6000    -2.0000   -34.2897    25.0000    10.0000    10.0000    25.0000    39.0000    30.0000    30.0000    39.0000    86.3044    -2.0000    -4.9995    -0.0010    -0.0010   159.4104   -41.1799     3.6428     2.9989     0.0000    -0.2687    14.7002    14.6907     0.0095    12.6140    14.3430     1.000
     45   136.7004      1.000  15406.000  13738.000      5.232    66.7975   -22.2454   -41.1659   119.9771     2.6000    -2.0000   -34.2897    25.0000    10.0000    10.0000    25.0000    39.0000    30.0000    30.0000    39.0000    86.3044    -2.0000    -4.9995    -0.0010    -0.0010   159.4104   -41.1799     3.6428     2.9991     0.0000    -0.2343    14.7002    14.6907     0.0095    12.4460    14.2240     1.000
